# Macroscopic dielectric function obtained with the BS equation.
#  RPA L0 with KS energies and KS wavefunctions     LOCAL FIELD EFFECTS INCLUDED
# RESONANT-ONLY calculation
# Coulomb term constructed with full W(G1,G2)
# Scissor operator energy =  0.8000 [eV]
# Tolerance =  0.0500 0.0000
# npweps  = 59
# npwwfn  = 259
# nbands  = 6
# loband  = 2
# nkibz   = 64
# nkbz    = 64
# Lorentzian broadening =  0.1000 [eV]
# List of q-points for the optical limit:
# q =  0.938821, 0.000000, 0.000000, [Reduced coords] 
# q =  0.000000, 0.938821, 0.000000, [Reduced coords] 
# q =  0.000000, 0.000000, 0.938821, [Reduced coords] 
# q =  0.000000, 0.813043, 0.813043, [Reduced coords] 
# q =  0.813043, 0.000000, 0.813043, [Reduced coords] 
# q =  0.813043, 0.813043, 0.000000, [Reduced coords] 
# omega [eV]    RE(eps(q=1)) IM(eps(q=1) RE(eps(q=2) ) ... 
  0.000   15.8604    0.0000   15.6305    0.0000   12.7886    0.0000   12.1739    0.0000   15.0216    0.0000   15.3604    0.0000
  0.020   15.8608    0.0041   15.6309    0.0041   12.7889    0.0030   12.1741    0.0027   15.0220    0.0039   15.3608    0.0040
  0.040   15.8620    0.0083   15.6321    0.0081   12.7898    0.0060   12.1749    0.0054   15.0231    0.0078   15.3620    0.0079
  0.060   15.8641    0.0124   15.6341    0.0122   12.7913    0.0090   12.1763    0.0081   15.0251    0.0117   15.3640    0.0119
  0.080   15.8670    0.0166   15.6370    0.0163   12.7934    0.0120   12.1782    0.0109   15.0278    0.0155   15.3668    0.0159
  0.100   15.8707    0.0208   15.6406    0.0203   12.7961    0.0150   12.1806    0.0136   15.0313    0.0194   15.3703    0.0199
  0.120   15.8752    0.0249   15.6451    0.0244   12.7994    0.0181   12.1836    0.0163   15.0356    0.0233   15.3747    0.0239
  0.140   15.8806    0.0291   15.6504    0.0285   12.8033    0.0211   12.1871    0.0190   15.0406    0.0273   15.3799    0.0279
  0.160   15.8869    0.0333   15.6565    0.0326   12.8078    0.0241   12.1912    0.0218   15.0464    0.0312   15.3858    0.0319
  0.180   15.8939    0.0375   15.6634    0.0367   12.8129    0.0272   12.1958    0.0245   15.0530    0.0351   15.3926    0.0359
  0.200   15.9018    0.0417   15.6711    0.0409   12.8187    0.0302   12.2010    0.0273   15.0604    0.0391   15.4002    0.0400
  0.220   15.9105    0.0459   15.6797    0.0450   12.8250    0.0333   12.2067    0.0300   15.0686    0.0430   15.4085    0.0440
  0.240   15.9201    0.0502   15.6891    0.0492   12.8319    0.0364   12.2130    0.0328   15.0776    0.0470   15.4177    0.0481
  0.260   15.9305    0.0544   15.6993    0.0534   12.8395    0.0394   12.2198    0.0356   15.0873    0.0510   15.4277    0.0522
  0.280   15.9418    0.0587   15.7103    0.0576   12.8477    0.0425   12.2271    0.0384   15.0979    0.0550   15.4385    0.0563
  0.300   15.9539    0.0630   15.7222    0.0618   12.8565    0.0457   12.2351    0.0412   15.1093    0.0590   15.4502    0.0604
  0.320   15.9669    0.0673   15.7350    0.0660   12.8659    0.0488   12.2436    0.0440   15.1215    0.0631   15.4626    0.0646
  0.340   15.9808    0.0717   15.7486    0.0703   12.8759    0.0519   12.2526    0.0468   15.1344    0.0672   15.4759    0.0687
  0.360   15.9955    0.0761   15.7630    0.0746   12.8866    0.0551   12.2622    0.0496   15.1482    0.0713   15.4900    0.0729
  0.380   16.0111    0.0805   15.7783    0.0789   12.8979    0.0583   12.2724    0.0525   15.1629    0.0754   15.5050    0.0772
  0.400   16.0276    0.0849   15.7945    0.0832   12.9098    0.0615   12.2832    0.0554   15.1783    0.0795   15.5208    0.0814
  0.420   16.0450    0.0894   15.8115    0.0876   12.9224    0.0647   12.2945    0.0583   15.1946    0.0837   15.5375    0.0857
  0.440   16.0633    0.0939   15.8294    0.0920   12.9356    0.0679   12.3064    0.0612   15.2117    0.0879   15.5550    0.0900
  0.460   16.0824    0.0984   15.8482    0.0965   12.9495    0.0712   12.3189    0.0641   15.2296    0.0922   15.5734    0.0943
  0.480   16.1025    0.1030   15.8679    0.1009   12.9640    0.0745   12.3320    0.0671   15.2484    0.0965   15.5926    0.0987
  0.500   16.1235    0.1076   15.8885    0.1055   12.9792    0.0778   12.3457    0.0701   15.2681    0.1008   15.6127    0.1031
  0.520   16.1454    0.1122   15.9099    0.1100   12.9951    0.0812   12.3600    0.0731   15.2886    0.1051   15.6337    0.1076
  0.540   16.1682    0.1169   15.9323    0.1146   13.0116    0.0845   12.3748    0.0761   15.3100    0.1095   15.6556    0.1121
  0.560   16.1920    0.1217   15.9556    0.1193   13.0288    0.0880   12.3903    0.0791   15.3323    0.1140   15.6784    0.1166
  0.580   16.2167    0.1264   15.9799    0.1240   13.0467    0.0914   12.4064    0.0822   15.3555    0.1185   15.7021    0.1212
  0.600   16.2424    0.1313   16.0051    0.1287   13.0653    0.0949   12.4231    0.0853   15.3795    0.1230   15.7268    0.1259
  0.620   16.2691    0.1362   16.0312    0.1335   13.0845    0.0984   12.4404    0.0885   15.4045    0.1276   15.7523    0.1306
  0.640   16.2967    0.1411   16.0583    0.1383   13.1045    0.1019   12.4584    0.0916   15.4304    0.1322   15.7788    0.1353
  0.660   16.3253    0.1461   16.0863    0.1432   13.1252    0.1055   12.4770    0.0948   15.4572    0.1369   15.8063    0.1401
  0.680   16.3550    0.1511   16.1154    0.1482   13.1466    0.1091   12.4962    0.0981   15.4850    0.1416   15.8347    0.1449
  0.700   16.3856    0.1563   16.1454    0.1532   13.1687    0.1128   12.5161    0.1013   15.5137    0.1464   15.8640    0.1498
  0.720   16.4173    0.1614   16.1765    0.1583   13.1915    0.1165   12.5366    0.1046   15.5433    0.1512   15.8944    0.1548
  0.740   16.4500    0.1667   16.2085    0.1634   13.2151    0.1202   12.5578    0.1080   15.5740    0.1562   15.9258    0.1598
  0.760   16.4837    0.1720   16.2416    0.1686   13.2395    0.1240   12.5797    0.1113   15.6056    0.1611   15.9581    0.1649
  0.780   16.5185    0.1774   16.2757    0.1739   13.2646    0.1278   12.6022    0.1147   15.6382    0.1662   15.9915    0.1701
  0.800   16.5544    0.1828   16.3109    0.1792   13.2904    0.1317   12.6255    0.1182   15.6718    0.1713   16.0259    0.1753
  0.820   16.5914    0.1883   16.3472    0.1846   13.3171    0.1357   12.6494    0.1217   15.7065    0.1765   16.0614    0.1806
  0.840   16.6295    0.1940   16.3845    0.1901   13.3445    0.1397   12.6740    0.1252   15.7422    0.1817   16.0979    0.1860
  0.860   16.6687    0.1996   16.4229    0.1957   13.3728    0.1437   12.6993    0.1288   15.7789    0.1870   16.1355    0.1914
  0.880   16.7091    0.2054   16.4625    0.2014   13.4018    0.1478   12.7254    0.1325   15.8167    0.1925   16.1742    0.1970
  0.900   16.7506    0.2113   16.5032    0.2071   13.4317    0.1520   12.7521    0.1362   15.8556    0.1980   16.2140    0.2026
  0.920   16.7933    0.2172   16.5451    0.2129   13.4624    0.1562   12.7797    0.1399   15.8956    0.2035   16.2549    0.2083
  0.940   16.8372    0.2233   16.5881    0.2189   13.4940    0.1605   12.8079    0.1437   15.9367    0.2092   16.2970    0.2141
  0.960   16.8823    0.2294   16.6323    0.2249   13.5264    0.1648   12.8370    0.1475   15.9790    0.2150   16.3402    0.2200
  0.980   16.9286    0.2357   16.6777    0.2310   13.5597    0.1693   12.8668    0.1514   16.0224    0.2208   16.3847    0.2260
  1.000   16.9762    0.2421   16.7243    0.2372   13.5939    0.1738   12.8973    0.1554   16.0670    0.2268   16.4303    0.2321
  1.020   17.0251    0.2485   16.7722    0.2436   13.6290    0.1783   12.9287    0.1594   16.1128    0.2329   16.4772    0.2383
  1.040   17.0753    0.2551   16.8214    0.2500   13.6649    0.1830   12.9609    0.1635   16.1598    0.2390   16.5253    0.2446
  1.060   17.1267    0.2618   16.8719    0.2566   13.7019    0.1877   12.9939    0.1676   16.2081    0.2453   16.5746    0.2510
  1.080   17.1796    0.2687   16.9237    0.2633   13.7398    0.1925   13.0277    0.1719   16.2576    0.2517   16.6253    0.2576
  1.100   17.2338    0.2756   16.9768    0.2701   13.7786    0.1974   13.0624    0.1761   16.3083    0.2582   16.6772    0.2642
  1.120   17.2894    0.2827   17.0313    0.2770   13.8184    0.2023   13.0979    0.1805   16.3604    0.2649   16.7306    0.2710
  1.140   17.3464    0.2899   17.0872    0.2841   13.8592    0.2074   13.1344    0.1849   16.4139    0.2717   16.7852    0.2780
  1.160   17.4049    0.2973   17.1445    0.2913   13.9011    0.2126   13.1717    0.1895   16.4687    0.2786   16.8413    0.2850
  1.180   17.4648    0.3048   17.2032    0.2987   13.9439    0.2178   13.2099    0.1941   16.5249    0.2856   16.8988    0.2922
  1.200   17.5263    0.3125   17.2634    0.3062   13.9879    0.2232   13.2490    0.1987   16.5824    0.2928   16.9577    0.2996
  1.220   17.5893    0.3203   17.3252    0.3139   14.0329    0.2287   13.2891    0.2035   16.6415    0.3002   17.0181    0.3071
  1.240   17.6539    0.3283   17.3885    0.3217   14.0790    0.2342   13.3301    0.2083   16.7020    0.3077   17.0800    0.3148
  1.260   17.7201    0.3365   17.4533    0.3297   14.1262    0.2399   13.3721    0.2133   16.7640    0.3153   17.1435    0.3226
  1.280   17.7879    0.3448   17.5198    0.3379   14.1746    0.2457   13.4151    0.2183   16.8276    0.3231   17.2085    0.3306
  1.300   17.8574    0.3534   17.5879    0.3462   14.2241    0.2517   13.4591    0.2235   16.8927    0.3311   17.2751    0.3388
  1.320   17.9286    0.3621   17.6576    0.3548   14.2748    0.2577   13.5042    0.2287   16.9594    0.3393   17.3434    0.3472
  1.340   18.0016    0.3710   17.7291    0.3635   14.3268    0.2639   13.5503    0.2341   17.0278    0.3477   17.4134    0.3557
  1.360   18.0763    0.3801   17.8024    0.3725   14.3799    0.2702   13.5974    0.2395   17.0979    0.3563   17.4850    0.3645
  1.380   18.1529    0.3895   17.8774    0.3816   14.4344    0.2767   13.6457    0.2451   17.1697    0.3650   17.5585    0.3735
  1.400   18.2314    0.3991   17.9543    0.3910   14.4901    0.2833   13.6951    0.2508   17.2432    0.3740   17.6337    0.3826
  1.420   18.3118    0.4089   18.0331    0.4006   14.5472    0.2901   13.7456    0.2566   17.3186    0.3832   17.7108    0.3921
  1.440   18.3941    0.4189   18.1138    0.4104   14.6056    0.2970   13.7973    0.2626   17.3957    0.3927   17.7898    0.4017
  1.460   18.4785    0.4292   18.1964    0.4205   14.6655    0.3041   13.8502    0.2686   17.4748    0.4023   17.8707    0.4116
  1.480   18.5650    0.4398   18.2811    0.4309   14.7267    0.3113   13.9043    0.2749   17.5559    0.4123   17.9536    0.4217
  1.500   18.6535    0.4507   18.3679    0.4415   14.7894    0.3188   13.9597    0.2812   17.6389    0.4224   18.0385    0.4321
  1.520   18.7443    0.4618   18.4568    0.4524   14.8536    0.3264   14.0163    0.2877   17.7240    0.4329   18.1255    0.4428
  1.540   18.8373    0.4732   18.5479    0.4636   14.9193    0.3342   14.0743    0.2944   17.8111    0.4436   18.2147    0.4538
  1.560   18.9326    0.4850   18.6412    0.4750   14.9866    0.3422   14.1335    0.3012   17.9005    0.4547   18.3061    0.4651
  1.580   19.0302    0.4970   18.7369    0.4869   15.0556    0.3505   14.1942    0.3082   17.9920    0.4660   18.3997    0.4767
  1.600   19.1303    0.5094   18.8349    0.4990   15.1261    0.3589   14.2562    0.3154   18.0858    0.4776   18.4956    0.4886
  1.620   19.2328    0.5222   18.9353    0.5115   15.1984    0.3676   14.3197    0.3227   18.1820    0.4896   18.5940    0.5008
  1.640   19.3379    0.5353   19.0383    0.5243   15.2724    0.3765   14.3847    0.3302   18.2805    0.5019   18.6948    0.5134
  1.660   19.4457    0.5488   19.1438    0.5375   15.3482    0.3857   14.4512    0.3379   18.3815    0.5146   18.7981    0.5264
  1.680   19.5561    0.5627   19.2520    0.5511   15.4258    0.3951   14.5192    0.3459   18.4851    0.5277   18.9041    0.5398
  1.700   19.6694    0.5770   19.3629    0.5652   15.5053    0.4048   14.5888    0.3540   18.5913    0.5412   19.0127    0.5535
  1.720   19.7855    0.5918   19.4767    0.5796   15.5868    0.4148   14.6601    0.3624   18.7002    0.5550   19.1241    0.5677
  1.740   19.9046    0.6070   19.5933    0.5945   15.6703    0.4250   14.7330    0.3709   18.8119    0.5694   19.2383    0.5824
  1.760   20.0268    0.6227   19.7129    0.6099   15.7558    0.4356   14.8077    0.3798   18.9265    0.5841   19.3555    0.5975
  1.780   20.1520    0.6390   19.8356    0.6258   15.8434    0.4465   14.8841    0.3888   19.0440    0.5994   19.4757    0.6131
  1.800   20.2806    0.6557   19.9615    0.6421   15.9333    0.4577   14.9624    0.3982   19.1646    0.6151   19.5991    0.6292
  1.820   20.4125    0.6730   20.0907    0.6591   16.0254    0.4693   15.0425    0.4078   19.2883    0.6314   19.7256    0.6458
  1.840   20.5479    0.6909   20.2233    0.6765   16.1198    0.4813   15.1246    0.4177   19.4153    0.6482   19.8555    0.6630
  1.860   20.6869    0.7094   20.3594    0.6946   16.2166    0.4936   15.2086    0.4279   19.5457    0.6656   19.9889    0.6808
  1.880   20.8295    0.7285   20.4991    0.7133   16.3159    0.5064   15.2947    0.4384   19.6796    0.6836   20.1258    0.6992
  1.900   20.9760    0.7483   20.6425    0.7327   16.4177    0.5196   15.3829    0.4492   19.8170    0.7022   20.2665    0.7183
  1.920   21.1265    0.7688   20.7899    0.7528   16.5222    0.5332   15.4733    0.4603   19.9583    0.7215   20.4109    0.7381
  1.940   21.2811    0.7900   20.9413    0.7736   16.6295    0.5473   15.5659    0.4719   20.1033    0.7415   20.5593    0.7586
  1.960   21.4399    0.8121   21.0968    0.7951   16.7395    0.5619   15.6608    0.4837   20.2524    0.7623   20.7118    0.7798
  1.980   21.6032    0.8349   21.2566    0.8175   16.8525    0.5770   15.7581    0.4960   20.4057    0.7838   20.8686    0.8019
  2.000   21.7710    0.8587   21.4210    0.8407   16.9685    0.5927   15.8578    0.5087   20.5632    0.8062   21.0298    0.8248
  2.020   21.9436    0.8833   21.5900    0.8649   17.0877    0.6089   15.9601    0.5218   20.7253    0.8294   21.1955    0.8486
  2.040   22.1212    0.9089   21.7638    0.8899   17.2101    0.6258   16.0651    0.5354   20.8920    0.8536   21.3661    0.8734
  2.060   22.3038    0.9356   21.9426    0.9160   17.3359    0.6433   16.1727    0.5494   21.0635    0.8787   21.5416    0.8991
  2.080   22.4918    0.9633   22.1267    0.9432   17.4651    0.6615   16.2832    0.5640   21.2401    0.9049   21.7222    0.9260
  2.100   22.6854    0.9922   22.3162    0.9714   17.5981    0.6804   16.3966    0.5790   21.4219    0.9322   21.9082    0.9539
  2.120   22.8847    1.0223   22.5113    1.0009   17.7348    0.7001   16.5130    0.5946   21.6091    0.9606   22.0998    0.9831
  2.140   23.0900    1.0537   22.7124    1.0317   17.8754    0.7206   16.6325    0.6108   21.8021    0.9902   22.2973    1.0136
  2.160   23.3017    1.0865   22.9196    1.0638   18.0202    0.7419   16.7553    0.6277   22.0009    1.0212   22.5008    1.0454
  2.180   23.5198    1.1208   23.1332    1.0973   18.1692    0.7642   16.8815    0.6451   22.2060    1.0535   22.7106    1.0786
  2.200   23.7448    1.1566   23.3534    1.1323   18.3226    0.7874   17.0111    0.6633   22.4174    1.0874   22.9271    1.1134
  2.220   23.9770    1.1940   23.5807    1.1690   18.4807    0.8117   17.1444    0.6822   22.6357    1.1228   23.1506    1.1498
  2.240   24.2166    1.2333   23.8153    1.2074   18.6437    0.8370   17.2815    0.7018   22.8610    1.1598   23.3813    1.1880
  2.260   24.4641    1.2744   24.0576    1.2477   18.8117    0.8635   17.4224    0.7223   23.0937    1.1987   23.6196    1.2281
  2.280   24.7197    1.3175   24.3079    1.2900   18.9850    0.8913   17.5675    0.7436   23.3341    1.2395   23.8658    1.2701
  2.300   24.9839    1.3628   24.5666    1.3343   19.1638    0.9205   17.7169    0.7658   23.5827    1.2824   24.1205    1.3144
  2.320   25.2572    1.4104   24.8341    1.3810   19.3484    0.9510   17.8706    0.7890   23.8398    1.3274   24.3839    1.3610
  2.340   25.5399    1.4605   25.1109    1.4301   19.5391    0.9831   18.0291    0.8133   24.1059    1.3749   24.6566    1.4100
  2.360   25.8325    1.5133   25.3974    1.4818   19.7362    1.0169   18.1923    0.8387   24.3813    1.4249   24.9390    1.4618
  2.380   26.1357    1.5689   25.6942    1.5364   19.9400    1.0524   18.3606    0.8652   24.6667    1.4776   25.2316    1.5165
  2.400   26.4498    1.6276   26.0019    1.5940   20.1508    1.0899   18.5342    0.8930   24.9626    1.5332   25.5351    1.5743
  2.420   26.7756    1.6897   26.3209    1.6549   20.3690    1.1294   18.7134    0.9221   25.2695    1.5921   25.8500    1.6356
  2.440   27.1137    1.7555   26.6520    1.7194   20.5951    1.1712   18.8983    0.9527   25.5880    1.6544   26.1770    1.7005
  2.460   27.4647    1.8251   26.9958    1.7877   20.8294    1.2153   19.0894    0.9848   25.9188    1.7205   26.5167    1.7695
  2.480   27.8296    1.8990   27.3531    1.8603   21.0725    1.2622   19.2868    1.0186   26.2627    1.7906   26.8701    1.8429
  2.500   28.2089    1.9776   27.7246    1.9375   21.3248    1.3119   19.4909    1.0542   26.6204    1.8651   27.2378    1.9212
  2.520   28.6037    2.0612   28.1114    2.0197   21.5868    1.3647   19.7021    1.0917   26.9927    1.9445   27.6209    2.0047
  2.540   29.0150    2.1504   28.5142    2.1073   21.8592    1.4210   19.9207    1.1313   27.3807    2.0291   28.0202    2.0941
  2.560   29.4436    2.2456   28.9343    2.2010   22.1426    1.4810   20.1472    1.1731   27.7852    2.1195   28.4370    2.1899
  2.580   29.8909    2.3475   29.3725    2.3012   22.4378    1.5451   20.3819    1.2173   28.2074    2.2162   28.8723    2.2928
  2.600   30.3581    2.4567   29.8304    2.4087   22.7454    1.6138   20.6253    1.2642   28.6484    2.3199   29.3276    2.4036
  2.620   30.8465    2.5741   30.3091    2.5243   23.0664    1.6876   20.8780    1.3139   29.1097    2.4312   29.8041    2.5232
  2.640   31.3576    2.7004   30.8101    2.6488   23.4016    1.7669   21.1405    1.3668   29.5925    2.5510   30.3036    2.6526
  2.660   31.8930    2.8367   31.3351    2.7833   23.7521    1.8525   21.4134    1.4230   30.0985    2.6801   30.8277    2.7931
  2.680   32.4547    2.9841   31.8860    2.9289   24.1190    1.9451   21.6973    1.4830   30.6294    2.8198   31.3784    2.9460
  2.700   33.0445    3.1440   32.4646    3.0869   24.5035    2.0455   21.9929    1.5471   31.1872    2.9711   31.9578    3.1131
  2.720   33.6648    3.3179   33.0732    3.2589   24.9070    2.1548   22.3010    1.6157   31.7738    3.1354   32.5683    3.2964
  2.740   34.3179    3.5076   33.7142    3.4467   25.3310    2.2742   22.6225    1.6893   32.3917    3.3145   33.2126    3.4981
  2.760   35.0065    3.7153   34.3903    3.6526   25.7772    2.4050   22.9583    1.7684   33.0435    3.5100   33.8935    3.7211
  2.780   35.7338    3.9434   35.1045    3.8790   26.2474    2.5490   23.3093    1.8536   33.7321    3.7243   34.6143    3.9689
  2.800   36.5030    4.1950   35.8602    4.1291   26.7438    2.7082   23.6768    1.9456   34.4606    3.9599   35.3787    4.2457
  2.820   37.3178    4.4736   36.6610    4.4064   27.2685    2.8852   24.0618    2.0452   35.2327    4.2198   36.1906    4.5567
  2.840   38.1824    4.7837   37.5111    4.7156   27.8241    3.0829   24.4659    2.1534   36.0525    4.5076   37.0543    4.9083
  2.860   39.1013    5.1305   38.4150    5.0621   28.4133    3.3052   24.8905    2.2712   36.9245    4.8277   37.9744    5.3088
  2.880   40.0795    5.5205   39.3776    5.4526   29.0391    3.5568   25.3372    2.4000   37.8538    5.1851   38.9557    5.7686
  2.900   41.1223    5.9621   40.4043    5.8955   29.7044    3.8437   25.8081    2.5411   38.8461    5.5863   40.0028    6.3009
  2.920   42.2352    6.4652   41.5004    6.4016   30.4121    4.1735   26.3050    2.6964   39.9079    6.0387   41.1194    6.9231
  2.940   43.4237    7.0430   42.6713    6.9843   31.1648    4.5560   26.8304    2.8681   41.0465    6.5518   42.3074    7.6574
  2.960   44.6924    7.7116   43.9214    7.6605   31.9638    5.0037   27.3869    3.0586   42.2698    7.1372   43.5644    8.5330
